File: LSTM/50um/1079714-2/G21-9800-CV-01 Plot-cv data-240620 082156.DTA
EXPLAIN
TAG	CV
TITLE	LABEL	Cyclic Voltammetry	Test &Identifier
DATE	LABEL	2024-06-20	Date
TIME	LABEL	8:21:56 AM	Time
NOTES	NOTES	1	&Notes...
	GI-CV	FCATS v19.0.1f5
PSTAT	PSTAT	REF3000-42167	Potentiostat
VINIT	POTEN	1.350000E+0	F	Initial &E (V)
VLIMIT1	POTEN	1.350000E+0	F	Scan Limit &1 (V)
VLIMIT2	POTEN	5.000000E-2	F	Scan Limit &2 (V)
VFINAL	POTEN	1.350000E+0	F	Final &E (V)
SCANRATE	QUANT	5.000000E-2	&Scan Rate (V/s)
STEPSIZE	QUANT	2	St&ep Size (V)
CYCLES	IQUANT	3	C&ycles (#)
IMODE	SELECTOR	1	I/E Range &Mode
IRANGE	QUANT	NaN	&Max Current (mA)
AREA	QUANT	5.000000E+1	Electrode &Area (cm^2)
ELECTRODETYPE	SELECTOR	0	Electrode Type
STRIPPING	TOGGLE	F	Used for Stripping
POLARITY	TOGGLE	F	Signal Polarity
CONDIT	TWOPARAM	F	0.00000E+000	0.00000E+000	Conditionin&g	Time(s)	E(V)
DELAY	TWOPARAM	0	0.000000E+0	0.00000E+000	Init. De&lay	Time(s)	Stab.(mV/s)
EQDELAY	QUANT	0.000000E+0	Equil. &Time (s)
IRCOMP	SELECTOR	0	IRCom&p
PFCOR	QUANT	0.00000E+000	PF Corr. (ohm)
SAMPLINGMODE	SELECTOR	Surface	Sampling &Mode
EOC	QUANT	0	Open Circuit (V)
PSTATMODEL	IQUANT	6.000000E+0	Pstat Model
PSTATSECTION	LABEL	REF3000-42167	Pstat Section
PSTATSERIALNO	LABEL	42167	Pstat Serial Number
CTRLMODE	IQUANT	0	Control Mode
IESTAB	IQUANT	2	I/E Stability
CASPEED	IQUANT	2	Control Amp Speed
CONVENTION	IQUANT	1	Current Convention
ICHRANGE	IQUANT	2	Ich Range
ICHRANGEMODE	TOGGLE	F	Ich Auto Range
ICHOFFSETENABLE	TOGGLE	F	Ich Offset Enable
ICHOFFSET	QUANT	0	Ich Offset (V)
ICHFILTER	IQUANT	3	Ich Filter
VCHRANGE	IQUANT	2	Vch Range
VCHRANGEMODE	TOGGLE	F	Vch Auto Range
VCHOFFSETENABLE	TOGGLE	F	Vch Offset Enable
VCHOFFSET	QUANT	0	Vch Offset (V)
VCHFILTER	IQUANT	3	Vch Filter
ACHRANGE	IQUANT	2	Ach Range
ACHOFFSETENABLE	TOGGLE	F	Ach Offset Enable
ACHOFFSET	QUANT	0	Ach Offset (V)
ACHFILTER	IQUANT	1	Ach Filter
IERANGELOWERLIMIT	IQUANT	2	I/E Range Lower Limit
IERANGEMODE	TOGGLE	F	I/E AutoRange
IERANGE	IQUANT	9	I/E Range
POSFEEDENABLE	TOGGLE	F	Positive Feedback IR Comp
POSFEEDRESISTANCE	QUANT	0	Positive Feedback Resistance (ohm)
ACHSELECT	IQUANT	0	Ach Select
CABLEID	IQUANT	14	Cable ID
DCCALDATE	LABEL	N/A	DC Calibration Date
ACCALDATE	LABEL	N/A	AC Calibration Date
THERMOSELECT	IQUANT	1	Thermo Select
FRAMEWORKVERSION	QUANT	7.8.2.7430	Framework Version
INSTRUMENTVERSION	LABEL	2.31	Instrument Version
COMPLIANCEVOLTAGE	IQUANT	0	Compliance Voltage
CURVE1	TABLE
	Pt	T	Vf	Im	Vu	Sig	Ach	IERange	Over	Cycle
	#	s	V vs. Ref.	A	V	V	V	#	bits	#
	0	0.100000	1.349808	-0.010322	0.000000	1.350000	0.001709	13	.......	0
	11	1.200000	1.295041	-2.847738	0.000000	1.295000	0.000619	13	.......	0
	22	2.300000	1.239957	-2.756850	0.000000	1.240000	0.000623	13	.......	0
	33	3.400000	1.185008	-2.739243	0.000000	1.185000	0.000619	13	.......	0
	44	4.500000	1.129941	-2.991622	0.000000	1.130000	0.000625	13	.......	0
	55	5.600000	1.075015	-3.592065	0.000000	1.075000	0.000615	13	.......	0
	66	6.700000	1.020036	-4.174217	0.000000	1.020000	0.000618	13	.......	0
	77	7.800000	0.964960	-4.191031	0.000000	0.965000	0.000625	13	.......	0
	88	8.900001	0.909994	-3.986336	0.000000	0.910000	0.000619	13	.......	0
	99	10	0.855075	-4.102049	0.000000	0.855000	0.000622	13	.......	0
	110	11.1	0.800044	-4.150931	0.000000	0.800000	0.000626	13	.......	0
	121	12.2	0.745024	-3.517098	0.000000	0.745000	0.000621	13	.......	0
	132	13.3	0.690040	-3.122891	0.000000	0.690000	0.000623	13	.......	0
	143	14.4	0.635052	-2.777766	0.000000	0.635000	0.000621	13	.......	0
	154	15.5	0.579995	-2.359147	0.000000	0.580000	0.000620	13	.......	0
	165	16.6	0.524965	-2.016699	0.000000	0.525000	0.000623	13	.......	0
	176	17.7	0.470018	-1.791354	0.000000	0.470000	0.000619	13	.......	0
	187	18.8	0.415026	-1.673289	0.000000	0.415000	0.000618	13	.......	0
	198	19.9	0.359958	-1.529769	0.000000	0.360000	0.000622	13	.......	0
	209	21	0.305025	-1.280755	0.000000	0.305000	0.000624	13	.......	0
	220	22.1	0.249910	-0.908400	0.000000	0.250000	0.000624	13	.......	0
	231	23.2	0.194984	-0.570255	0.000000	0.195000	0.000624	13	.......	0
	242	24.3	0.139922	-0.355941	0.000000	0.140000	0.000623	13	.......	0
	253	25.4	0.084976	-0.260183	0.000000	0.085000	0.000618	13	.......	0
	264	26.5	0.069952	-0.177717	0.000000	0.070000	0.000615	13	.......	0
	275	27.6	0.124894	-0.126462	0.000000	0.125000	0.000621	13	.......	0
	286	28.7	0.179895	-0.048940	0.000000	0.180000	0.000621	13	.......	0
	297	29.8	0.234897	0.196291	0.000000	0.235000	0.000618	13	.......	0
	308	30.9	0.289867	0.958927	0.000000	0.290000	0.000616	13	.......	0
	319	32	0.344814	1.544493	0.000000	0.345000	0.000622	13	.......	0
	330	33.1	0.399829	1.630413	0.000000	0.400000	0.000621	13	.......	0
	341	34.2	0.454827	1.765722	0.000000	0.455000	0.000619	13	.......	0
	352	35.3	0.509811	1.945320	0.000000	0.510000	0.000619	13	.......	0
	363	36.4	0.564754	2.191288	0.000000	0.565000	0.000618	13	.......	0
	374	37.5	0.619780	2.434928	0.000000	0.620000	0.000617	13	.......	0
	385	38.6	0.674762	2.722462	0.000000	0.675000	0.000618	13	.......	0
	396	39.7	0.729724	2.833678	0.000000	0.730000	0.000625	13	.......	0
	407	40.8	0.784748	2.813326	0.000000	0.785000	0.000622	13	.......	0
	418	41.9	0.839810	2.656751	0.000000	0.840000	0.000619	13	.......	0
	429	43	0.894816	2.528096	0.000000	0.895000	0.000619	13	.......	0
	440	44.1	0.949737	2.360137	0.000000	0.950000	0.000621	13	.......	0
	451	45.2	1.004725	2.365264	0.000000	1.005000	0.000625	13	.......	0
	462	46.3	1.059740	2.447077	0.000000	1.060000	0.000624	13	.......	0
	473	47.4	1.114676	2.619437	0.000000	1.115000	0.000616	13	.......	0
	484	48.5	1.169646	2.642264	0.000000	1.170000	0.000617	13	.......	0
	495	49.6	1.224696	2.700939	0.000000	1.225000	0.000618	13	.......	0
	506	50.7	1.279731	2.834799	0.000000	1.280000	0.000621	13	.......	0
	517	51.8	1.334633	3.129590	0.000000	1.335000	0.000615	13	.......	0
	528	52.9	1.309949	-2.691870	0.000000	1.310000	0.000614	13	.......	1
	539	54	1.254972	-2.633628	0.000000	1.255000	0.000614	13	.......	1
	550	55.1	1.199960	-2.565688	0.000000	1.200000	0.000615	13	.......	1
	561	56.2	1.144981	-2.471542	0.000000	1.145000	0.000624	13	.......	1
	572	57.3	1.089916	-2.372102	0.000000	1.090000	0.000620	13	.......	1
	583	58.4	1.034960	-2.243098	0.000000	1.035000	0.000618	13	.......	1
	594	59.5	0.979953	-2.161533	0.000000	0.980000	0.000619	13	.......	1
	605	60.6	0.924924	-2.184357	0.000000	0.925000	0.000622	13	.......	1
	616	61.7	0.869955	-2.405924	0.000000	0.870000	0.000615	13	.......	1
	627	62.8	0.815039	-2.530175	0.000000	0.815000	0.000616	13	.......	1
	638	63.9	0.759945	-2.681397	0.000000	0.760000	0.000618	13	.......	1
	649	65	0.705049	-2.666504	0.000000	0.705000	0.000620	13	.......	1
	660	66.1	0.649969	-2.520656	0.000000	0.650000	0.000623	13	.......	1
	671	67.2	0.595007	-2.275223	0.000000	0.595000	0.000624	13	.......	1
	682	68.3	0.539941	-1.994199	0.000000	0.540000	0.000621	13	.......	1
	693	69.4	0.484997	-1.784033	0.000000	0.485000	0.000621	13	.......	1
	704	70.5	0.429972	-1.636029	0.000000	0.430000	0.000616	13	.......	1
	715	71.6	0.375052	-1.494895	0.000000	0.375000	0.000624	13	.......	1
	726	72.7	0.319966	-1.308793	0.000000	0.320000	0.000622	13	.......	1
	737	73.8	0.265016	-0.972872	0.000000	0.265000	0.000619	13	.......	1
	748	74.9	0.209944	-0.614584	0.000000	0.210000	0.000617	13	.......	1
	759	76	0.154975	-0.375212	0.000000	0.155000	0.000622	13	.......	1
	770	77.1	0.099971	-0.262870	0.000000	0.100000	0.000622	13	.......	1
	781	78.2	0.055021	-0.190259	0.000000	0.055000	0.000623	13	.......	1
	792	79.3	0.109894	-0.126428	0.000000	0.110000	0.000617	13	.......	1
	803	80.4	0.164932	-0.063727	0.000000	0.165000	0.000623	13	.......	1
	814	81.5	0.219909	0.122208	0.000000	0.220000	0.000621	13	.......	1
	825	82.6	0.274935	0.715318	0.000000	0.275000	0.000619	13	.......	1
	836	83.7	0.329796	1.547046	0.000000	0.330000	0.000617	13	.......	1
	847	84.8	0.384823	1.586452	0.000000	0.385000	0.000622	13	.......	1
	858	85.9	0.439830	1.721158	0.000000	0.440000	0.000621	13	.......	1
	869	87	0.494850	1.873321	0.000000	0.495000	0.000622	13	.......	1
	880	88.1	0.549786	2.099122	0.000000	0.550000	0.000619	13	.......	1
	891	89.2	0.604729	2.351765	0.000000	0.605000	0.000624	13	.......	1
	902	90.3	0.659774	2.683600	0.000000	0.660000	0.000624	13	.......	1
	913	91.4	0.714755	2.834079	0.000000	0.715000	0.000621	13	.......	1
	924	92.5	0.769722	2.809120	0.000000	0.770000	0.000620	13	.......	1
	935	93.6	0.824750	2.743873	0.000000	0.825000	0.000619	13	.......	1
	946	94.7	0.879803	2.570321	0.000000	0.880000	0.000621	13	.......	1
	957	95.8	0.934665	2.348101	0.000000	0.935000	0.000621	13	.......	1
	968	96.9	0.989778	2.299605	0.000000	0.990000	0.000621	13	.......	1
	979	98	1.044729	2.377839	0.000000	1.045000	0.000619	13	.......	1
	990	99.1	1.099790	2.552654	0.000000	1.100000	0.000621	13	.......	1
	1001	100.2	1.154658	2.574454	0.000000	1.155000	0.000621	13	.......	1
	1012	101.3	1.209698	2.629937	0.000000	1.210000	0.000622	13	.......	1
	1023	102.4	1.264697	2.789666	0.000000	1.265000	0.000622	13	.......	1
	1034	103.5	1.319706	2.995264	0.000000	1.320000	0.000617	13	.......	1
	1045	104.6	1.324917	-2.567096	0.000000	1.325000	0.000624	13	.......	2
	1056	105.7	1.269910	-2.682170	0.000000	1.270000	0.000616	13	.......	2
	1067	106.8	1.214980	-2.527323	0.000000	1.215000	0.000617	13	.......	2
	1078	107.9	1.159928	-2.454477	0.000000	1.160000	0.000620	13	.......	2
	1089	109	1.104978	-2.389444	0.000000	1.105000	0.000625	13	.......	2
	1100	110.1	1.049904	-2.276635	0.000000	1.050000	0.000617	13	.......	2
	1111	111.2	0.995002	-2.217561	0.000000	0.995000	0.000620	13	.......	2
	1122	112.3	0.939951	-2.262575	0.000000	0.940000	0.000619	13	.......	2
	1133	113.4	0.884956	-2.310828	0.000000	0.885000	0.000619	13	.......	2
	1144	114.5	0.829993	-2.460164	0.000000	0.830000	0.000619	13	.......	2
	1155	115.6	0.775038	-2.540781	0.000000	0.775000	0.000620	13	.......	2
	1166	116.7	0.719966	-2.641407	0.000000	0.720000	0.000623	13	.......	2
	1177	117.8	0.664997	-2.541602	0.000000	0.665000	0.000620	13	.......	2
	1188	118.9	0.609974	-2.373368	0.000000	0.610000	0.000618	13	.......	2
	1199	120	0.554999	-2.131150	0.000000	0.555000	0.000618	13	.......	2
	1210	121.1	0.499938	-1.871777	0.000000	0.500000	0.000618	13	.......	2
	1221	122.2	0.444971	-1.631913	0.000000	0.445000	0.000624	13	.......	2
	1232	123.3	0.389957	-1.470798	0.000000	0.390000	0.000614	13	.......	2
	1243	124.4	0.334990	-1.324132	0.000000	0.335000	0.000619	13	.......	2
	1254	125.5	0.279992	-1.058348	0.000000	0.280000	0.000623	13	.......	2
	1265	126.6	0.224992	-0.723822	0.000000	0.225000	0.000623	13	.......	2
	1276	127.7	0.169933	-0.460387	0.000000	0.170000	0.000617	13	.......	2
	1287	128.8	0.114959	-0.321178	0.000000	0.115000	0.000621	13	.......	2
	1298	129.9	0.060000	-0.248740	0.000000	0.060000	0.000621	13	.......	2
	1309	131	0.095015	-0.135111	0.000000	0.095000	0.000618	13	.......	2
	1320	132.1	0.149862	-0.077867	0.000000	0.150000	0.000613	13	.......	2
	1331	133.2	0.204885	0.047052	0.000000	0.205000	0.000625	13	.......	2
	1342	134.3	0.259897	0.469514	0.000000	0.260000	0.000623	13	.......	2
	1353	135.4	0.314829	1.440116	0.000000	0.315000	0.000617	13	.......	2
	1364	136.5	0.369844	1.517188	0.000000	0.370000	0.000619	13	.......	2
	1375	137.6	0.424881	1.658044	0.000000	0.425000	0.000619	13	.......	2
	1386	138.7	0.479849	1.815342	0.000000	0.480000	0.000623	13	.......	2
	1397	139.8	0.534786	1.975583	0.000000	0.535000	0.000621	13	.......	2
	1408	140.9	0.589766	2.285629	0.000000	0.590000	0.000624	13	.......	2
	1419	142	0.644723	2.589443	0.000000	0.645000	0.000625	13	.......	2
	1430	143.1	0.699789	2.783948	0.000000	0.700000	0.000622	13	.......	2
	1441	144.2	0.754708	2.849890	0.000000	0.755000	0.000619	13	.......	2
	1452	145.3	0.809675	2.757756	0.000000	0.810000	0.000624	13	.......	2
	1463	146.4	0.864739	2.616628	0.000000	0.865000	0.000622	13	.......	2
	1474	147.5	0.919794	2.448793	0.000000	0.920000	0.000616	13	.......	2
	1485	148.6	0.974741	2.306102	0.000000	0.975000	0.000616	13	.......	2
	1496	149.7	1.029739	2.388122	0.000000	1.030000	0.000622	13	.......	2
	1507	150.8	1.084741	2.475045	0.000000	1.085000	0.000620	13	.......	2
	1518	151.9	1.139729	2.606779	0.000000	1.140000	0.000621	13	.......	2
	1529	153	1.194679	2.663445	0.000000	1.195000	0.000615	13	.......	2
	1540	154.1	1.249696	2.696883	0.000000	1.250000	0.000618	13	.......	2
	1551	155.2	1.304733	2.909076	0.000000	1.305000	0.000621	13	.......	2
	1559	156	1.344615	3.148139	0.000000	1.345000	0.000622	13	.......	2