File: LSTM/50um/1079714-2/G21-9800-CV-01 Plot-cv data-240621 060159.DTA
EXPLAIN
TAG	CV
TITLE	LABEL	Cyclic Voltammetry	Test &Identifier
DATE	LABEL	2024-06-21	Date
TIME	LABEL	6:01:59 AM	Time
NOTES	NOTES	1	&Notes...
	GI-CV	FCATS v19.0.1f5
PSTAT	PSTAT	REF3000-42167	Potentiostat
VINIT	POTEN	1.350000E+0	F	Initial &E (V)
VLIMIT1	POTEN	1.350000E+0	F	Scan Limit &1 (V)
VLIMIT2	POTEN	5.000000E-2	F	Scan Limit &2 (V)
VFINAL	POTEN	1.350000E+0	F	Final &E (V)
SCANRATE	QUANT	5.000000E-2	&Scan Rate (V/s)
STEPSIZE	QUANT	2	St&ep Size (V)
CYCLES	IQUANT	3	C&ycles (#)
IMODE	SELECTOR	1	I/E Range &Mode
IRANGE	QUANT	NaN	&Max Current (mA)
AREA	QUANT	5.000000E+1	Electrode &Area (cm^2)
ELECTRODETYPE	SELECTOR	0	Electrode Type
STRIPPING	TOGGLE	F	Used for Stripping
POLARITY	TOGGLE	F	Signal Polarity
CONDIT	TWOPARAM	F	0.00000E+000	0.00000E+000	Conditionin&g	Time(s)	E(V)
DELAY	TWOPARAM	0	0.000000E+0	0.00000E+000	Init. De&lay	Time(s)	Stab.(mV/s)
EQDELAY	QUANT	0.000000E+0	Equil. &Time (s)
IRCOMP	SELECTOR	0	IRCom&p
PFCOR	QUANT	0.00000E+000	PF Corr. (ohm)
SAMPLINGMODE	SELECTOR	Surface	Sampling &Mode
EOC	QUANT	0	Open Circuit (V)
PSTATMODEL	IQUANT	6.000000E+0	Pstat Model
PSTATSECTION	LABEL	REF3000-42167	Pstat Section
PSTATSERIALNO	LABEL	42167	Pstat Serial Number
CTRLMODE	IQUANT	0	Control Mode
IESTAB	IQUANT	2	I/E Stability
CASPEED	IQUANT	2	Control Amp Speed
CONVENTION	IQUANT	1	Current Convention
ICHRANGE	IQUANT	2	Ich Range
ICHRANGEMODE	TOGGLE	F	Ich Auto Range
ICHOFFSETENABLE	TOGGLE	F	Ich Offset Enable
ICHOFFSET	QUANT	0	Ich Offset (V)
ICHFILTER	IQUANT	3	Ich Filter
VCHRANGE	IQUANT	2	Vch Range
VCHRANGEMODE	TOGGLE	F	Vch Auto Range
VCHOFFSETENABLE	TOGGLE	F	Vch Offset Enable
VCHOFFSET	QUANT	0	Vch Offset (V)
VCHFILTER	IQUANT	3	Vch Filter
ACHRANGE	IQUANT	2	Ach Range
ACHOFFSETENABLE	TOGGLE	F	Ach Offset Enable
ACHOFFSET	QUANT	0	Ach Offset (V)
ACHFILTER	IQUANT	1	Ach Filter
IERANGELOWERLIMIT	IQUANT	2	I/E Range Lower Limit
IERANGEMODE	TOGGLE	F	I/E AutoRange
IERANGE	IQUANT	9	I/E Range
POSFEEDENABLE	TOGGLE	F	Positive Feedback IR Comp
POSFEEDRESISTANCE	QUANT	0	Positive Feedback Resistance (ohm)
ACHSELECT	IQUANT	0	Ach Select
CABLEID	IQUANT	14	Cable ID
DCCALDATE	LABEL	N/A	DC Calibration Date
ACCALDATE	LABEL	N/A	AC Calibration Date
THERMOSELECT	IQUANT	1	Thermo Select
FRAMEWORKVERSION	QUANT	7.8.2.7430	Framework Version
INSTRUMENTVERSION	LABEL	2.31	Instrument Version
COMPLIANCEVOLTAGE	IQUANT	0	Compliance Voltage
CURVE1	TABLE
	Pt	T	Vf	Im	Vu	Sig	Ach	IERange	Over	Cycle
	#	s	V vs. Ref.	A	V	V	V	#	bits	#
	0	0.100000	1.349730	1.727594	0.000000	1.350000	0.001693	13	.......	0
	11	1.200000	1.294864	-0.332473	0.000000	1.295000	0.000596	13	.......	0
	22	2.300000	1.239876	-0.487330	0.000000	1.240000	0.000594	13	.......	0
	33	3.400000	1.184865	-0.551144	0.000000	1.185000	0.000600	13	.......	0
	44	4.500000	1.129849	-0.531350	0.000000	1.130000	0.000595	13	.......	0
	55	5.600000	1.074797	-0.436249	0.000000	1.075000	0.000596	13	.......	0
	66	6.700000	1.019900	-0.358606	0.000000	1.020000	0.000596	13	.......	0
	77	7.800000	0.964790	-0.407514	0.000000	0.965000	0.000599	13	.......	0
	88	8.900001	0.909882	-0.544971	0.000000	0.910000	0.000601	13	.......	0
	99	10	0.854901	-0.668264	0.000000	0.855000	0.000599	13	.......	0
	110	11.1	0.799896	-0.772709	0.000000	0.800000	0.000601	13	.......	0
	121	12.2	0.744858	-0.825076	0.000000	0.745000	0.000595	13	.......	0
	132	13.3	0.689901	-0.771515	0.000000	0.690000	0.000594	13	.......	0
	143	14.4	0.634892	-0.606253	0.000000	0.635000	0.000594	13	.......	0
	154	15.5	0.579904	-0.428582	0.000000	0.580000	0.000599	13	.......	0
	165	16.6	0.524873	-0.353890	0.000000	0.525000	0.000603	13	.......	0
	176	17.7	0.469927	-0.421238	0.000000	0.470000	0.000592	13	.......	0
	187	18.8	0.414963	-0.624986	0.000000	0.415000	0.000594	13	.......	0
	198	19.9	0.359907	-0.916915	0.000000	0.360000	0.000597	13	.......	0
	209	21	0.304983	-1.093694	0.000000	0.305000	0.000604	13	.......	0
	220	22.1	0.249898	-1.029164	0.000000	0.250000	0.000598	13	.......	0
	231	23.2	0.194957	-0.857063	0.000000	0.195000	0.000599	13	.......	0
	242	24.3	0.139912	-0.699156	0.000000	0.140000	0.000596	13	.......	0
	253	25.4	0.084996	-0.712478	0.000000	0.085000	0.000589	13	.......	0
	264	26.5	0.069915	-0.549355	0.000000	0.070000	0.000598	13	.......	0
	275	27.6	0.124887	-0.201304	0.000000	0.125000	0.000599	13	.......	0
	286	28.7	0.179878	-0.101511	0.000000	0.180000	0.000602	13	.......	0
	297	29.8	0.234862	0.071027	0.000000	0.235000	0.000595	13	.......	0
	308	30.9	0.289872	0.386676	0.000000	0.290000	0.000590	13	.......	0
	319	32	0.344800	1.048293	0.000000	0.345000	0.000595	13	.......	0
	330	33.1	0.399799	2.289542	0.000000	0.400000	0.000597	13	.......	0
	341	34.2	0.454669	3.762447	0.000000	0.455000	0.000599	13	.......	0
	352	35.3	0.509727	3.743371	0.000000	0.510000	0.000601	13	.......	0
	363	36.4	0.564658	3.643846	0.000000	0.565000	0.000594	13	.......	0
	374	37.5	0.619708	3.876958	0.000000	0.620000	0.000593	13	.......	0
	385	38.6	0.674663	4.250687	0.000000	0.675000	0.000593	13	.......	0
	396	39.7	0.729627	4.612149	0.000000	0.730000	0.000596	13	.......	0
	407	40.8	0.784640	4.856387	0.000000	0.785000	0.000598	13	.......	0
	418	41.9	0.839684	4.962473	0.000000	0.840000	0.000591	13	.......	0
	429	43	0.894649	4.947343	0.000000	0.895000	0.000594	13	.......	0
	440	44.1	0.949577	4.839105	0.000000	0.950000	0.000593	13	.......	0
	451	45.2	1.004622	4.685110	0.000000	1.005000	0.000602	13	.......	0
	462	46.3	1.059602	4.607985	0.000000	1.060000	0.000597	13	.......	0
	473	47.4	1.114620	4.700075	0.000000	1.115000	0.000596	13	.......	0
	484	48.5	1.169530	4.887426	0.000000	1.170000	0.000593	13	.......	0
	495	49.6	1.224627	5.074828	0.000000	1.225000	0.000592	13	.......	0
	506	50.7	1.279543	5.220362	0.000000	1.280000	0.000596	13	.......	0
	517	51.8	1.334545	5.368179	0.000000	1.335000	0.000601	13	.......	0
	528	52.9	1.309829	0.743788	0.000000	1.310000	0.000595	13	.......	1
	539	54	1.254780	0.009946	0.000000	1.255000	0.000599	13	.......	1
	550	55.1	1.199890	-0.236034	0.000000	1.200000	0.000599	13	.......	1
	561	56.2	1.144824	-0.308580	0.000000	1.145000	0.000593	13	.......	1
	572	57.3	1.089844	-0.272487	0.000000	1.090000	0.000595	13	.......	1
	583	58.4	1.034832	-0.222231	0.000000	1.035000	0.000595	13	.......	1
	594	59.5	0.979888	-0.277584	0.000000	0.980000	0.000594	13	.......	1
	605	60.6	0.924831	-0.440677	0.000000	0.925000	0.000597	13	.......	1
	616	61.7	0.869870	-0.622429	0.000000	0.870000	0.000594	13	.......	1
	627	62.8	0.814926	-0.793061	0.000000	0.815000	0.000591	13	.......	1
	638	63.9	0.759893	-0.914413	0.000000	0.760000	0.000592	13	.......	1
	649	65	0.704894	-0.947048	0.000000	0.705000	0.000598	13	.......	1
	660	66.1	0.649882	-0.880946	0.000000	0.650000	0.000596	13	.......	1
	671	67.2	0.594896	-0.785532	0.000000	0.595000	0.000596	13	.......	1
	682	68.3	0.539903	-0.784584	0.000000	0.540000	0.000586	13	.......	1
	693	69.4	0.484960	-0.941651	0.000000	0.485000	0.000590	13	.......	1
	704	70.5	0.429904	-1.191307	0.000000	0.430000	0.000590	13	.......	1
	715	71.6	0.375035	-1.362937	0.000000	0.375000	0.000599	13	.......	1
	726	72.7	0.319935	-1.325679	0.000000	0.320000	0.000597	13	.......	1
	737	73.8	0.264989	-1.143546	0.000000	0.265000	0.000590	13	.......	1
	748	74.9	0.209928	-0.927406	0.000000	0.210000	0.000594	13	.......	1
	759	76	0.154969	-0.733055	0.000000	0.155000	0.000600	13	.......	1
	770	77.1	0.099957	-0.632993	0.000000	0.100000	0.000600	13	.......	1
	781	78.2	0.055030	-0.775784	0.000000	0.055000	0.000599	13	.......	1
	792	79.3	0.109872	-0.180304	0.000000	0.110000	0.000593	13	.......	1
	803	80.4	0.164904	-0.062777	0.000000	0.165000	0.000597	13	.......	1
	814	81.5	0.219892	0.087339	0.000000	0.220000	0.000595	13	.......	1
	825	82.6	0.274895	0.361017	0.000000	0.275000	0.000598	13	.......	1
	836	83.7	0.329821	0.895871	0.000000	0.330000	0.000593	13	.......	1
	847	84.8	0.384740	1.963794	0.000000	0.385000	0.000594	13	.......	1
	858	85.9	0.439744	3.519190	0.000000	0.440000	0.000591	13	.......	1
	869	87	0.494712	3.825497	0.000000	0.495000	0.000587	13	.......	1
	880	88.1	0.549678	3.659212	0.000000	0.550000	0.000593	13	.......	1
	891	89.2	0.604642	3.790076	0.000000	0.605000	0.000596	13	.......	1
	902	90.3	0.659669	4.116765	0.000000	0.660000	0.000596	13	.......	1
	913	91.4	0.714635	4.484384	0.000000	0.715000	0.000599	13	.......	1
	924	92.5	0.769614	4.756418	0.000000	0.770000	0.000597	13	.......	1
	935	93.6	0.824640	4.892886	0.000000	0.825000	0.000592	13	.......	1
	946	94.7	0.879683	4.907078	0.000000	0.880000	0.000595	13	.......	1
	957	95.8	0.934601	4.820553	0.000000	0.935000	0.000596	13	.......	1
	968	96.9	0.989634	4.676328	0.000000	0.990000	0.000595	13	.......	1
	979	98	1.044648	4.572144	0.000000	1.045000	0.000591	13	.......	1
	990	99.1	1.099683	4.624305	0.000000	1.100000	0.000587	13	.......	1
	1001	100.2	1.154586	4.807020	0.000000	1.155000	0.000587	13	.......	1
	1012	101.3	1.209579	5.015482	0.000000	1.210000	0.000595	13	.......	1
	1023	102.4	1.264605	5.187533	0.000000	1.265000	0.000592	13	.......	1
	1034	103.5	1.319498	5.344133	0.000000	1.320000	0.000592	13	.......	1
	1045	104.6	1.324737	1.309489	0.000000	1.325000	0.000593	13	.......	2
	1056	105.7	1.269818	0.174342	0.000000	1.270000	0.000587	13	.......	2
	1067	106.8	1.214837	-0.143275	0.000000	1.215000	0.000586	13	.......	2
	1078	107.9	1.159853	-0.249864	0.000000	1.160000	0.000587	13	.......	2
	1089	109	1.104830	-0.238962	0.000000	1.105000	0.000592	13	.......	2
	1100	110.1	1.049849	-0.177455	0.000000	1.050000	0.000590	13	.......	2
	1111	111.2	0.994832	-0.205076	0.000000	0.995000	0.000591	13	.......	2
	1122	112.3	0.939904	-0.351281	0.000000	0.940000	0.000584	13	.......	2
	1133	113.4	0.884855	-0.532195	0.000000	0.885000	0.000591	13	.......	2
	1144	114.5	0.829904	-0.710974	0.000000	0.830000	0.000591	13	.......	2
	1155	115.6	0.774926	-0.850093	0.000000	0.775000	0.000592	13	.......	2
	1166	116.7	0.719896	-0.911593	0.000000	0.720000	0.000593	13	.......	2
	1177	117.8	0.664877	-0.878114	0.000000	0.665000	0.000588	13	.......	2
	1188	118.9	0.609892	-0.800440	0.000000	0.610000	0.000586	13	.......	2
	1199	120	0.554839	-0.800159	0.000000	0.555000	0.000587	13	.......	2
	1210	121.1	0.499896	-0.951438	0.000000	0.500000	0.000599	13	.......	2
	1221	122.2	0.444941	-1.207933	0.000000	0.445000	0.000593	13	.......	2
	1232	123.3	0.389917	-1.395456	0.000000	0.390000	0.000588	13	.......	2
	1243	124.4	0.334974	-1.379944	0.000000	0.335000	0.000585	13	.......	2
	1254	125.5	0.279960	-1.209971	0.000000	0.280000	0.000589	13	.......	2
	1265	126.6	0.224968	-0.996005	0.000000	0.225000	0.000596	13	.......	2
	1276	127.7	0.169923	-0.795967	0.000000	0.170000	0.000590	13	.......	2
	1287	128.8	0.114944	-0.651061	0.000000	0.115000	0.000597	13	.......	2
	1298	129.9	0.060003	-0.866722	0.000000	0.060000	0.000589	13	.......	2
	1309	131	0.095009	-0.227734	0.000000	0.095000	0.000584	13	.......	2
	1320	132.1	0.149835	-0.061356	0.000000	0.150000	0.000589	13	.......	2
	1331	133.2	0.204873	0.079723	0.000000	0.205000	0.000593	13	.......	2
	1342	134.3	0.259883	0.328369	0.000000	0.260000	0.000590	13	.......	2
	1353	135.4	0.314827	0.771899	0.000000	0.315000	0.000589	13	.......	2
	1364	136.5	0.369825	1.680623	0.000000	0.370000	0.000587	13	.......	2
	1375	137.6	0.424731	3.165595	0.000000	0.425000	0.000585	13	.......	2
	1386	138.7	0.479782	3.872206	0.000000	0.480000	0.000594	13	.......	2
	1397	139.8	0.534665	3.621766	0.000000	0.535000	0.000590	13	.......	2
	1408	140.9	0.589680	3.681736	0.000000	0.590000	0.000595	13	.......	2
	1419	142	0.644649	3.976603	0.000000	0.645000	0.000586	13	.......	2
	1430	143.1	0.699710	4.350389	0.000000	0.700000	0.000585	13	.......	2
	1441	144.2	0.754628	4.648398	0.000000	0.755000	0.000586	13	.......	2
	1452	145.3	0.809561	4.817947	0.000000	0.810000	0.000594	13	.......	2
	1463	146.4	0.864643	4.860684	0.000000	0.865000	0.000593	13	.......	2
	1474	147.5	0.919656	4.799594	0.000000	0.920000	0.000590	13	.......	2
	1485	148.6	0.974619	4.667128	0.000000	0.975000	0.000591	13	.......	2
	1496	149.7	1.029613	4.541181	0.000000	1.030000	0.000591	13	.......	2
	1507	150.8	1.084640	4.548923	0.000000	1.085000	0.000595	13	.......	2
	1518	151.9	1.139536	4.709162	0.000000	1.140000	0.000594	13	.......	2
	1529	153	1.194605	4.926087	0.000000	1.195000	0.000595	13	.......	2
	1540	154.1	1.249596	5.117115	0.000000	1.250000	0.000585	13	.......	2
	1551	155.2	1.304642	5.275527	0.000000	1.305000	0.000584	13	.......	2
	1559	156	1.344557	5.410115	0.000000	1.345000	0.000600	13	.......	2